wavelength,amplitude
832.5749999999999,1.000
831.725,0.893
830.875,0.839
830.025,0.825
829.175,0.820
828.3249999999999,0.802
827.475,0.786
826.625,0.778
825.775,0.792
824.925,0.890
824.0749999999999,0.845
823.225,0.853
822.375,0.842
821.525,0.844
820.675,0.833
819.8249999999999,0.821
818.975,0.876
818.125,0.869
817.275,0.854
816.425,0.828
815.5749999999999,0.825
814.725,0.786
813.875,0.839
813.025,0.837
812.175,0.813
811.3249999999999,0.814
810.475,0.804
809.625,0.801
808.775,0.822
807.925,0.811
807.0749999999999,0.829
806.225,0.807
805.375,0.825
804.525,0.780
803.675,0.793
802.8249999999999,0.774
801.975,0.760
801.125,0.789
800.275,0.832
799.425,0.829
798.5749999999999,0.727
797.725,0.714
796.875,0.716
796.025,0.703
795.175,0.806
794.3249999999999,0.785
793.475,0.748
792.625,0.811
791.775,0.698
790.925,0.656
790.0749999999999,0.636
789.225,0.720
788.375,0.650
787.525,0.707
786.675,0.712
785.8249999999999,0.729
784.975,0.730
784.125,0.702
783.275,0.699
782.425,0.681
781.5749999999999,0.663
780.725,0.683
779.875,0.604
779.025,0.656
778.175,0.652
777.3249999999999,0.655
776.475,0.628
775.625,0.658
774.775,0.688
773.925,0.675
773.0749999999999,0.642
772.225,0.662
771.375,0.623
770.525,0.601
769.675,0.606
768.8249999999999,0.609
767.975,0.600
767.125,0.613
766.275,0.654
765.425,0.666
764.5749999999999,0.620
763.725,0.537
762.875,0.555
762.025,0.566
761.175,0.512
760.3249999999999,0.561
759.475,0.599
758.625,0.604
757.775,0.606
756.925,0.585
756.0749999999999,0.557
755.225,0.537
754.375,0.548
753.525,0.532
752.675,0.519
751.8249999999999,0.542
750.975,0.528
750.125,0.523
749.275,0.533
748.425,0.615
747.5749999999999,0.599
746.725,0.579
745.875,0.568
745.025,0.571
744.175,0.646
743.3249999999999,0.490
742.475,0.547
741.625,0.527
740.775,0.455
739.925,0.469
739.0749999999999,0.475
738.225,0.510
737.375,0.491
736.525,0.481
735.675,0.517
734.8249999999999,0.497
733.975,0.514
733.125,0.508
732.275,0.484
731.425,0.502
730.5749999999999,0.482
729.725,0.446
728.875,0.436
728.025,0.460
727.175,0.469
726.3249999999999,0.429
725.475,0.406
724.625,0.455
723.775,0.454
722.925,0.435
722.0749999999999,0.454
721.225,0.464
720.375,0.459
719.525,0.464
718.675,0.457
717.8249999999999,0.452
716.975,0.455
716.125,0.465
715.275,0.453
714.425,0.459
713.5749999999999,0.440
712.725,0.420
711.875,0.398
711.025,0.403
710.175,0.416
709.3249999999999,0.414
708.475,0.419
707.625,0.389
706.775,0.385
705.925,0.423
705.0749999999999,0.436
704.225,0.447
703.375,0.384
702.525,0.411
701.675,0.431
700.8249999999999,0.448
699.975,0.458
699.125,0.408
698.275,0.418
697.425,0.414
696.5749999999999,0.386
695.725,0.369
694.875,0.401
694.025,0.413
693.175,0.385
692.3249999999999,0.371
691.475,0.368
690.625,0.394
689.775,0.428
688.925,0.428
688.0749999999999,0.374
687.225,0.406
686.375,0.425
685.525,0.436
684.675,0.387
683.8249999999999,0.382
682.975,0.402
682.125,0.394
681.275,0.379
680.425,0.400
679.5749999999999,0.412
678.725,0.424
677.875,0.419
677.025,0.425
676.175,0.399
675.3249999999999,0.368
674.475,0.365
673.625,0.360
672.775,0.377
671.925,0.368
671.0749999999999,0.404
670.225,0.409
669.375,0.395
668.525,0.382
667.675,0.362
666.8249999999999,0.405
665.975,0.351
665.125,0.364
664.275,0.374
663.425,0.373
662.5749999999999,0.366
661.725,0.387
660.875,0.408
660.025,0.389
659.175,0.363
658.3249999999999,0.392
657.475,0.385
656.625,0.387
655.775,0.381
654.925,0.367
654.0749999999999,0.335
653.225,0.352
652.375,0.352
651.525,0.344
650.675,0.318
649.8249999999999,0.329
648.975,0.304
648.125,0.301
647.275,0.330
646.425,0.312
645.5749999999999,0.304
644.725,0.339
643.875,0.342
643.025,0.308
642.175,0.326
641.3249999999999,0.338
640.475,0.338
639.625,0.326
638.775,0.326
637.925,0.313
637.0749999999999,0.307
636.225,0.320
635.375,0.339
634.525,0.339
633.675,0.302
632.8249999999999,0.323
631.975,0.328
631.125,0.320
630.275,0.362
629.425,0.355
628.5749999999999,0.320
627.725,0.333
626.875,0.325
626.025,0.338
625.175,0.327
624.3249999999999,0.337
623.475,0.346
622.625,0.392
621.775,0.331
620.925,0.322
620.0749999999999,0.331
619.225,0.356
618.375,0.357
617.525,0.336
616.675,0.334
615.8249999999999,0.348
614.975,0.340
614.125,0.318
613.275,0.320
612.425,0.306
611.5749999999999,0.318
610.725,0.298
609.875,0.305
609.025,0.321
608.175,0.316
607.3249999999999,0.298
606.475,0.301
605.625,0.341
604.775,0.332
603.925,0.329
603.0749999999999,0.289
602.225,0.319
601.375,0.303
600.525,0.304
599.675,0.310
598.8249999999999,0.319
597.975,0.335
597.125,0.330
596.275,0.338
595.425,0.319
594.5749999999999,0.296
593.725,0.285
592.875,0.303
592.025,0.304
591.175,0.302
590.3249999999999,0.315
589.475,0.290
588.625,0.307
587.775,0.302
586.925,0.317
586.0749999999999,0.314
585.225,0.269
584.375,0.316
583.525,0.311
582.675,0.314
581.8249999999999,0.308
580.975,0.283
580.125,0.278
579.275,0.283
578.425,0.293
577.5749999999999,0.304
576.725,0.296
575.875,0.327
575.025,0.332
574.175,0.319
573.3249999999999,0.305
572.475,0.314
571.625,0.319
570.775,0.304
569.925,0.351
569.0749999999999,0.352
568.225,0.327
567.375,0.313
566.525,0.334
565.675,0.328
564.8249999999999,0.310
563.975,0.318
563.125,0.325
562.275,0.294
561.425,0.311
560.5749999999999,0.296
559.725,0.311
558.875,0.305
558.025,0.308
557.175,0.307
556.3249999999999,0.299
555.475,0.295
554.625,0.290
553.775,0.288
552.925,0.307
552.0749999999999,0.303
551.225,0.293
550.375,0.270
549.525,0.277
548.675,0.291
547.8249999999999,0.294
546.975,0.289
546.125,0.287
545.275,0.280
544.425,0.313
543.5749999999999,0.276
542.725,0.271
541.875,0.296
541.025,0.290
540.175,0.288
539.3249999999999,0.269
538.475,0.281
537.625,0.298
536.775,0.297
535.925,0.269
535.0749999999999,0.264
534.225,0.261
533.375,0.283
532.525,0.267
531.675,0.291
530.8249999999999,0.285
529.975,0.247
529.125,0.292
528.275,0.283
527.425,0.298
526.5749999999999,0.281
525.725,0.264
524.875,0.276
524.025,0.282
523.175,0.286
522.3249999999999,0.271
521.475,0.279
520.625,0.265
519.775,0.253
518.925,0.251
518.0749999999999,0.245
517.225,0.256
516.375,0.232
515.525,0.253
514.675,0.255
513.8249999999999,0.256
512.975,0.290
512.125,0.249
511.275,0.256
510.425,0.274
509.575,0.287
508.72499999999997,0.256
507.875,0.242
507.025,0.265
506.175,0.275
505.325,0.265
504.47499999999997,0.282
503.625,0.245
502.775,0.248
501.925,0.281
501.075,0.260
500.22499999999997,0.284
499.375,0.298
498.525,0.297
497.675,0.273
496.825,0.276
495.97499999999997,0.286
495.125,0.263
494.275,0.270
493.425,0.255
492.575,0.258
491.72499999999997,0.254
490.875,0.284
490.025,0.279
489.175,0.292
488.325,0.262
487.47499999999997,0.281
486.625,0.292
485.775,0.275
484.925,0.250
484.075,0.260
483.22499999999997,0.261
482.375,0.272
481.525,0.298
480.675,0.263
479.825,0.266
478.97499999999997,0.296
478.125,0.286
477.275,0.271
476.425,0.257
475.575,0.256
474.72499999999997,0.254
473.875,0.255
473.025,0.248
472.175,0.278
471.325,0.276
470.47499999999997,0.281
469.625,0.285
468.775,0.271
467.925,0.290
467.075,0.278
466.22499999999997,0.276
465.375,0.249
464.525,0.242
463.675,0.256
462.825,0.260
461.97499999999997,0.261
461.125,0.252
460.275,0.262
459.425,0.269
458.575,0.270
457.72499999999997,0.271
456.875,0.256
456.025,0.268
455.175,0.254
454.325,0.242
453.47499999999997,0.252
452.625,0.246
451.775,0.240
450.925,0.243
450.075,0.244
449.22499999999997,0.243
448.375,0.250
447.525,0.245
446.675,0.222
445.825,0.228
444.97499999999997,0.233
444.125,0.242
443.275,0.237
442.425,0.244
441.575,0.229
440.72499999999997,0.216
439.875,0.230
439.025,0.246
438.175,0.220
437.325,0.208
436.47499999999997,0.235
435.625,0.239
434.775,0.234
433.925,0.225
433.075,0.227
432.22499999999997,0.254
431.375,0.245
430.525,0.231
429.675,0.224
428.825,0.222
427.97499999999997,0.252
427.125,0.250
426.275,0.245
425.425,0.247
424.575,0.229
423.72499999999997,0.213
422.875,0.230
422.025,0.241
421.175,0.236
420.325,0.227
419.47499999999997,0.252
418.625,0.242
417.775,0.252
416.925,0.251
416.075,0.228
415.22499999999997,0.251
414.375,0.233
413.525,0.227
412.675,0.209
411.825,0.229
410.97499999999997,0.245
410.125,0.226
409.275,0.245
408.425,0.250
407.575,0.236
406.72499999999997,0.230
405.875,0.216
405.025,0.225
404.175,0.208
403.325,0.199
402.47499999999997,0.220
401.625,0.218
400.775,0.213
399.925,0.222
399.075,0.213
398.22499999999997,0.214
397.375,0.196
396.525,0.199
395.675,0.173
394.825,0.160
393.97499999999997,0.174
393.125,0.172
392.275,0.184
391.425,0.213
390.575,0.194
389.72499999999997,0.201
388.875,0.169
388.025,0.174
387.175,0.163
386.325,0.166
385.47499999999997,0.175
384.625,0.179
383.775,0.196
382.925,0.203
382.075,0.187
381.22499999999997,0.185
380.375,0.190
