wavelength,amplitude
832.5749999999999,1.000
831.725,0.875
830.875,0.869
830.025,0.789
829.175,0.784
828.3249999999999,0.735
827.475,0.784
826.625,0.801
825.775,0.821
824.925,0.806
824.0749999999999,0.807
823.225,0.817
822.375,0.834
821.525,0.872
820.675,0.800
819.8249999999999,0.824
818.975,0.775
818.125,0.810
817.275,0.795
816.425,0.788
815.5749999999999,0.763
814.725,0.708
813.875,0.707
813.025,0.749
812.175,0.856
811.3249999999999,0.788
810.475,0.762
809.625,0.791
808.775,0.735
807.925,0.723
807.0749999999999,0.779
806.225,0.795
805.375,0.750
804.525,0.712
803.675,0.744
802.8249999999999,0.701
801.975,0.715
801.125,0.783
800.275,0.758
799.425,0.764
798.5749999999999,0.729
797.725,0.712
796.875,0.660
796.025,0.645
795.175,0.775
794.3249999999999,0.765
793.475,0.683
792.625,0.681
791.775,0.743
790.925,0.686
790.0749999999999,0.675
789.225,0.651
788.375,0.675
787.525,0.681
786.675,0.657
785.8249999999999,0.650
784.975,0.648
784.125,0.649
783.275,0.637
782.425,0.619
781.5749999999999,0.621
780.725,0.627
779.875,0.570
779.025,0.566
778.175,0.622
777.3249999999999,0.639
776.475,0.588
775.625,0.652
774.775,0.594
773.925,0.577
773.0749999999999,0.577
772.225,0.642
771.375,0.604
770.525,0.605
769.675,0.659
768.8249999999999,0.630
767.975,0.594
767.125,0.531
766.275,0.513
765.425,0.523
764.5749999999999,0.555
763.725,0.514
762.875,0.552
762.025,0.542
761.175,0.645
760.3249999999999,0.623
759.475,0.560
758.625,0.590
757.775,0.536
756.925,0.503
756.0749999999999,0.523
755.225,0.567
754.375,0.530
753.525,0.518
752.675,0.616
751.8249999999999,0.572
750.975,0.518
750.125,0.516
749.275,0.521
748.425,0.467
747.5749999999999,0.455
746.725,0.468
745.875,0.485
745.025,0.481
744.175,0.560
743.3249999999999,0.540
742.475,0.498
741.625,0.506
740.775,0.493
739.925,0.471
739.0749999999999,0.435
738.225,0.439
737.375,0.463
736.525,0.475
735.675,0.495
734.8249999999999,0.482
733.975,0.464
733.125,0.464
732.275,0.465
731.425,0.465
730.5749999999999,0.477
729.725,0.443
728.875,0.453
728.025,0.446
727.175,0.464
726.3249999999999,0.450
725.475,0.443
724.625,0.428
723.775,0.422
722.925,0.464
722.0749999999999,0.443
721.225,0.429
720.375,0.432
719.525,0.394
718.675,0.399
717.8249999999999,0.405
716.975,0.400
716.125,0.397
715.275,0.414
714.425,0.437
713.5749999999999,0.401
712.725,0.397
711.875,0.380
711.025,0.394
710.175,0.408
709.3249999999999,0.388
708.475,0.357
707.625,0.422
706.775,0.376
705.925,0.397
705.0749999999999,0.378
704.225,0.357
703.375,0.386
702.525,0.407
701.675,0.416
700.8249999999999,0.425
699.975,0.413
699.125,0.366
698.275,0.397
697.425,0.351
696.5749999999999,0.341
695.725,0.349
694.875,0.382
694.025,0.374
693.175,0.390
692.3249999999999,0.350
691.475,0.347
690.625,0.409
689.775,0.394
688.925,0.400
688.0749999999999,0.415
687.225,0.362
686.375,0.371
685.525,0.369
684.675,0.374
683.8249999999999,0.404
682.975,0.400
682.125,0.369
681.275,0.379
680.425,0.383
679.5749999999999,0.357
678.725,0.363
677.875,0.431
677.025,0.406
676.175,0.339
675.3249999999999,0.356
674.475,0.349
673.625,0.363
672.775,0.369
671.925,0.380
671.0749999999999,0.332
670.225,0.343
669.375,0.360
668.525,0.362
667.675,0.360
666.8249999999999,0.344
665.975,0.340
665.125,0.361
664.275,0.351
663.425,0.356
662.5749999999999,0.364
661.725,0.365
660.875,0.375
660.025,0.392
659.175,0.366
658.3249999999999,0.348
657.475,0.355
656.625,0.356
655.775,0.353
654.925,0.348
654.0749999999999,0.343
653.225,0.323
652.375,0.329
651.525,0.321
650.675,0.351
649.8249999999999,0.316
648.975,0.314
648.125,0.313
647.275,0.303
646.425,0.317
645.5749999999999,0.318
644.725,0.305
643.875,0.312
643.025,0.300
642.175,0.293
641.3249999999999,0.303
640.475,0.293
639.625,0.314
638.775,0.315
637.925,0.316
637.0749999999999,0.301
636.225,0.304
635.375,0.308
634.525,0.287
633.675,0.285
632.8249999999999,0.286
631.975,0.301
631.125,0.299
630.275,0.299
629.425,0.302
628.5749999999999,0.312
627.725,0.301
626.875,0.296
626.025,0.300
625.175,0.269
624.3249999999999,0.270
623.475,0.314
622.625,0.315
621.775,0.317
620.925,0.334
620.0749999999999,0.328
619.225,0.325
618.375,0.319
617.525,0.306
616.675,0.297
615.8249999999999,0.322
614.975,0.321
614.125,0.301
613.275,0.279
612.425,0.282
611.5749999999999,0.277
610.725,0.272
609.875,0.290
609.025,0.299
608.175,0.299
607.3249999999999,0.300
606.475,0.326
605.625,0.330
604.775,0.323
603.925,0.319
603.0749999999999,0.316
602.225,0.303
601.375,0.300
600.525,0.317
599.675,0.304
598.8249999999999,0.303
597.975,0.271
597.125,0.288
596.275,0.288
595.425,0.291
594.5749999999999,0.320
593.725,0.314
592.875,0.312
592.025,0.299
591.175,0.302
590.3249999999999,0.327
589.475,0.295
588.625,0.266
587.775,0.260
586.925,0.304
586.0749999999999,0.278
585.225,0.268
584.375,0.281
583.525,0.287
582.675,0.285
581.8249999999999,0.296
580.975,0.280
580.125,0.317
579.275,0.321
578.425,0.332
577.5749999999999,0.304
576.725,0.300
575.875,0.327
575.025,0.334
574.175,0.325
573.3249999999999,0.309
572.475,0.299
571.625,0.310
570.775,0.317
569.925,0.294
569.0749999999999,0.326
568.225,0.318
567.375,0.329
566.525,0.322
565.675,0.315
564.8249999999999,0.316
563.975,0.301
563.125,0.294
562.275,0.285
561.425,0.290
560.5749999999999,0.288
559.725,0.285
558.875,0.282
558.025,0.299
557.175,0.280
556.3249999999999,0.299
555.475,0.295
554.625,0.284
553.775,0.265
552.925,0.259
552.0749999999999,0.261
551.225,0.269
550.375,0.278
549.525,0.259
548.675,0.267
547.8249999999999,0.284
546.975,0.295
546.125,0.285
545.275,0.286
544.425,0.295
543.5749999999999,0.288
542.725,0.280
541.875,0.280
541.025,0.258
540.175,0.259
539.3249999999999,0.267
538.475,0.266
537.625,0.280
536.775,0.282
535.925,0.290
535.0749999999999,0.298
534.225,0.273
533.375,0.253
532.525,0.275
531.675,0.258
530.8249999999999,0.256
529.975,0.258
529.125,0.254
528.275,0.262
527.425,0.276
526.5749999999999,0.284
525.725,0.253
524.875,0.271
524.025,0.258
523.175,0.253
522.3249999999999,0.253
521.475,0.260
520.625,0.270
519.775,0.267
518.925,0.270
518.0749999999999,0.268
517.225,0.248
516.375,0.268
515.525,0.259
514.675,0.260
513.8249999999999,0.286
512.975,0.277
512.125,0.265
511.275,0.262
510.425,0.262
509.575,0.258
508.72499999999997,0.256
507.875,0.282
507.025,0.266
506.175,0.264
505.325,0.267
504.47499999999997,0.259
503.625,0.256
502.775,0.252
501.925,0.265
501.075,0.279
500.22499999999997,0.264
499.375,0.268
498.525,0.259
497.675,0.233
496.825,0.256
495.97499999999997,0.243
495.125,0.242
494.275,0.247
493.425,0.258
492.575,0.249
491.72499999999997,0.259
490.875,0.231
490.025,0.230
489.175,0.255
488.325,0.276
487.47499999999997,0.273
486.625,0.272
485.775,0.265
484.925,0.259
484.075,0.243
483.22499999999997,0.253
482.375,0.251
481.525,0.259
480.675,0.260
479.825,0.254
478.97499999999997,0.234
478.125,0.232
477.275,0.224
476.425,0.250
475.575,0.244
474.72499999999997,0.254
473.875,0.257
473.025,0.240
472.175,0.271
471.325,0.253
470.47499999999997,0.250
469.625,0.244
468.775,0.254
467.925,0.248
467.075,0.231
466.22499999999997,0.228
465.375,0.243
464.525,0.249
463.675,0.242
462.825,0.264
461.97499999999997,0.262
461.125,0.240
460.275,0.237
459.425,0.238
458.575,0.260
457.72499999999997,0.260
456.875,0.229
456.025,0.250
455.175,0.255
454.325,0.264
453.47499999999997,0.255
452.625,0.246
451.775,0.247
450.925,0.231
450.075,0.230
449.22499999999997,0.241
448.375,0.238
447.525,0.216
446.675,0.227
445.825,0.236
444.97499999999997,0.219
444.125,0.230
443.275,0.211
442.425,0.225
441.575,0.237
440.72499999999997,0.227
439.875,0.233
439.025,0.215
438.175,0.250
437.325,0.237
436.47499999999997,0.220
435.625,0.217
434.775,0.214
433.925,0.204
433.075,0.207
432.22499999999997,0.194
431.375,0.215
430.525,0.227
429.675,0.238
428.825,0.211
427.97499999999997,0.206
427.125,0.217
426.275,0.225
425.425,0.220
424.575,0.209
423.72499999999997,0.221
422.875,0.213
422.025,0.233
421.175,0.247
420.325,0.226
419.47499999999997,0.218
418.625,0.225
417.775,0.236
416.925,0.231
416.075,0.242
415.22499999999997,0.221
414.375,0.235
413.525,0.233
412.675,0.236
411.825,0.235
410.97499999999997,0.220
410.125,0.206
409.275,0.200
408.425,0.211
407.575,0.206
406.72499999999997,0.204
405.875,0.203
405.025,0.199
404.175,0.206
403.325,0.210
402.47499999999997,0.198
401.625,0.200
400.775,0.197
399.925,0.192
399.075,0.199
398.22499999999997,0.197
397.375,0.193
396.525,0.168
395.675,0.172
394.825,0.155
393.97499999999997,0.162
393.125,0.167
392.275,0.175
391.425,0.168
390.575,0.164
389.72499999999997,0.176
388.875,0.184
388.025,0.183
387.175,0.176
386.325,0.166
385.47499999999997,0.165
384.625,0.167
383.775,0.176
382.925,0.172
382.075,0.150
381.22499999999997,0.151
380.375,0.177
