wavelength,amplitude
821.9499999999999,0.954
821.1,0.958
820.25,0.964
819.4,0.965
818.55,0.958
817.6999999999999,0.970
816.85,0.979
816.0,0.983
815.15,0.984
814.3,0.983
813.4499999999999,0.983
812.6,0.985
811.75,0.991
810.9,0.998
810.05,1.000
809.1999999999999,0.992
808.35,0.991
807.5,0.992
806.65,0.993
805.8,0.988
804.9499999999999,0.985
804.1,0.978
803.25,0.973
802.4,0.971
801.55,0.976
800.6999999999999,0.980
799.85,0.981
799.0,0.979
798.15,0.972
797.3,0.981
796.4499999999999,0.981
795.6,0.978
794.75,0.975
793.9,0.969
793.05,0.972
792.1999999999999,0.967
791.35,0.961
790.5,0.957
789.65,0.951
788.8,0.950
787.9499999999999,0.948
787.1,0.944
786.25,0.938
785.4,0.932
784.55,0.941
783.6999999999999,0.946
782.85,0.947
782.0,0.941
781.15,0.933
780.3,0.927
779.4499999999999,0.927
778.6,0.932
777.75,0.932
776.9,0.928
776.05,0.923
775.1999999999999,0.920
774.35,0.918
773.5,0.911
772.65,0.905
771.8,0.901
770.9499999999999,0.900
770.1,0.901
769.25,0.902
768.4,0.897
767.55,0.892
766.6999999999999,0.891
765.85,0.896
765.0,0.900
764.15,0.894
763.3,0.888
762.4499999999999,0.888
761.6,0.886
760.75,0.887
759.9,0.885
759.05,0.881
758.1999999999999,0.875
757.35,0.862
756.5,0.857
755.65,0.857
754.8,0.858
753.9499999999999,0.859
753.1,0.858
752.25,0.862
751.4,0.856
750.55,0.846
749.6999999999999,0.843
748.85,0.838
748.0,0.840
747.15,0.840
746.3,0.838
745.4499999999999,0.834
744.6,0.832
743.75,0.829
742.9,0.827
742.05,0.827
741.1999999999999,0.825
740.35,0.828
739.5,0.829
738.65,0.827
737.8,0.822
736.9499999999999,0.819
736.1,0.815
735.25,0.810
734.4,0.807
733.55,0.805
732.6999999999999,0.798
731.85,0.800
731.0,0.798
730.15,0.792
729.3,0.781
728.4499999999999,0.781
727.6,0.785
726.75,0.780
725.9,0.770
725.05,0.774
724.1999999999999,0.777
723.35,0.781
722.5,0.783
721.65,0.784
720.8,0.776
719.9499999999999,0.770
719.1,0.765
718.25,0.760
717.4,0.751
716.55,0.748
715.6999999999999,0.744
714.85,0.737
714.0,0.729
713.15,0.721
712.3,0.722
711.4499999999999,0.715
710.6,0.709
709.75,0.705
708.9,0.699
708.05,0.685
707.1999999999999,0.679
706.35,0.679
705.5,0.679
704.65,0.671
703.8,0.661
702.9499999999999,0.657
702.1,0.655
701.25,0.649
700.4,0.642
699.55,0.639
698.6999999999999,0.633
697.85,0.623
697.0,0.615
696.15,0.608
695.3,0.601
694.4499999999999,0.595
693.6,0.588
692.75,0.576
691.9,0.572
691.05,0.568
690.1999999999999,0.564
689.35,0.560
688.5,0.557
687.65,0.550
686.8,0.543
685.9499999999999,0.539
685.1,0.535
684.25,0.529
683.4,0.526
682.55,0.518
681.6999999999999,0.510
680.85,0.507
680.0,0.505
679.15,0.508
678.3,0.508
677.4499999999999,0.506
676.6,0.506
675.75,0.499
674.9,0.497
674.05,0.498
673.1999999999999,0.499
672.35,0.499
671.5,0.495
670.65,0.495
669.8,0.495
668.9499999999999,0.491
668.1,0.495
667.25,0.490
666.4,0.486
665.55,0.483
664.6999999999999,0.478
663.85,0.481
663.0,0.479
662.15,0.475
661.3,0.471
660.4499999999999,0.469
659.6,0.467
658.75,0.465
657.9,0.463
657.05,0.463
656.1999999999999,0.463
655.35,0.462
654.5,0.461
653.65,0.460
652.8,0.460
651.9499999999999,0.462
651.1,0.464
650.25,0.463
649.4,0.459
648.55,0.452
647.6999999999999,0.439
646.85,0.427
646.0,0.416
645.15,0.404
644.3,0.390
643.4499999999999,0.376
642.6,0.363
641.75,0.350
640.9,0.339
640.05,0.330
639.1999999999999,0.326
638.35,0.329
637.5,0.330
636.65,0.329
635.8,0.332
634.9499999999999,0.328
634.1,0.321
633.25,0.310
632.4,0.295
631.55,0.290
630.6999999999999,0.290
629.85,0.291
629.0,0.290
628.15,0.290
627.3,0.292
626.4499999999999,0.294
625.6,0.297
624.75,0.302
623.9,0.304
623.05,0.307
622.1999999999999,0.308
621.35,0.307
620.5,0.305
619.65,0.303
618.8,0.303
617.9499999999999,0.305
617.1,0.305
616.25,0.306
615.4,0.309
614.55,0.311
613.6999999999999,0.313
612.85,0.317
612.0,0.319
611.15,0.322
610.3,0.325
609.4499999999999,0.328
608.6,0.330
607.75,0.334
606.9,0.338
606.05,0.341
605.1999999999999,0.344
604.35,0.349
603.5,0.352
602.65,0.358
601.8,0.364
600.9499999999999,0.368
600.1,0.371
599.25,0.376
598.4,0.379
597.55,0.383
596.6999999999999,0.388
595.85,0.392
595.0,0.394
594.15,0.397
593.3,0.402
592.4499999999999,0.406
591.6,0.408
590.75,0.411
589.9,0.416
589.05,0.421
588.1999999999999,0.424
587.35,0.429
586.5,0.434
585.65,0.442
584.8,0.449
583.9499999999999,0.456
583.1,0.467
582.25,0.479
581.4,0.488
580.55,0.496
579.6999999999999,0.505
578.85,0.513
578.0,0.526
577.15,0.537
576.3,0.546
575.4499999999999,0.555
574.6,0.564
573.75,0.570
572.9,0.577
572.05,0.586
571.1999999999999,0.592
570.35,0.587
569.5,0.583
568.65,0.579
567.8,0.576
566.9499999999999,0.571
566.1,0.566
565.25,0.562
564.4,0.558
563.55,0.553
562.6999999999999,0.550
561.85,0.544
561.0,0.540
560.15,0.537
559.3,0.536
558.4499999999999,0.532
557.6,0.533
556.75,0.533
555.9,0.535
555.05,0.539
554.1999999999999,0.540
553.35,0.542
552.5,0.544
551.65,0.547
550.8,0.548
549.9499999999999,0.555
549.1,0.562
548.25,0.569
547.4,0.574
546.55,0.578
545.6999999999999,0.579
544.85,0.582
544.0,0.586
543.15,0.589
542.3,0.592
541.4499999999999,0.593
540.6,0.595
539.75,0.601
538.9,0.609
538.05,0.613
537.1999999999999,0.617
536.35,0.622
535.5,0.627
534.65,0.631
533.8,0.637
532.9499999999999,0.644
532.1,0.653
531.25,0.663
530.4,0.672
529.55,0.677
528.6999999999999,0.684
527.85,0.692
527.0,0.694
526.15,0.697
525.3,0.700
524.4499999999999,0.703
523.6,0.707
522.75,0.711
521.9,0.712
521.05,0.713
520.1999999999999,0.715
519.35,0.716
518.5,0.714
517.65,0.717
516.8,0.718
515.9499999999999,0.720
515.1,0.720
514.25,0.721
513.4,0.722
512.55,0.726
511.7,0.728
510.84999999999997,0.729
510.0,0.729
509.15,0.732
508.3,0.734
507.45,0.734
506.59999999999997,0.736
505.75,0.735
504.9,0.736
504.05,0.737
503.2,0.735
502.34999999999997,0.736
501.5,0.736
500.65,0.738
499.8,0.738
498.95,0.739
498.09999999999997,0.740
497.25,0.741
496.4,0.742
495.55,0.743
494.7,0.744
493.84999999999997,0.744
493.0,0.744
492.15,0.745
491.3,0.746
490.45,0.746
489.59999999999997,0.747
488.75,0.748
487.9,0.749
487.05,0.748
486.2,0.747
485.34999999999997,0.746
484.5,0.745
483.65,0.745
482.8,0.745
481.95,0.741
481.09999999999997,0.741
480.25,0.742
479.4,0.741
478.55,0.741
477.7,0.740
476.84999999999997,0.740
476.0,0.739
475.15,0.739
474.3,0.738
473.45,0.737
472.59999999999997,0.735
471.75,0.732
470.9,0.730
470.05,0.732
469.2,0.731
468.34999999999997,0.729
467.5,0.728
466.65,0.727
465.8,0.727
464.95,0.728
464.09999999999997,0.726
463.25,0.726
462.4,0.726
461.55,0.729
460.7,0.731
459.84999999999997,0.734
459.0,0.738
458.15,0.741
457.3,0.741
456.45,0.744
455.59999999999997,0.744
454.75,0.744
453.9,0.743
453.05,0.742
452.2,0.743
451.34999999999997,0.742
450.5,0.739
449.65,0.737
448.8,0.735
447.95,0.735
447.09999999999997,0.734
446.25,0.733
445.4,0.733
444.55,0.732
443.7,0.730
442.84999999999997,0.728
442.0,0.725
441.15,0.725
440.3,0.722
439.45,0.719
438.59999999999997,0.714
437.75,0.710
436.9,0.705
436.05,0.701
435.2,0.696
434.34999999999997,0.689
433.5,0.682
432.65,0.678
431.8,0.674
430.95,0.671
430.09999999999997,0.668
429.25,0.661
428.4,0.657
427.55,0.648
426.7,0.638
425.84999999999997,0.627
425.0,0.617
424.15,0.601
423.3,0.586
422.45,0.570
421.59999999999997,0.551
420.75,0.529
419.9,0.505
419.05,0.481
418.2,0.460
417.34999999999997,0.440
416.5,0.428
415.65,0.421
414.8,0.417
413.95,0.415
413.09999999999997,0.412
412.25,0.408
411.4,0.405
410.55,0.403
409.7,0.401
408.84999999999997,0.400
408.0,0.398
407.15,0.397
406.3,0.397
405.45,0.397
404.59999999999997,0.395
403.75,0.394
402.9,0.394
402.05,0.394
401.2,0.394
400.34999999999997,0.394
399.5,0.393
398.65,0.393
397.8,0.392
396.95,0.391
396.09999999999997,0.390
395.25,0.388
394.4,0.387
393.55,0.387
392.7,0.388
391.84999999999997,0.387
391.0,0.386
390.15,0.384
389.3,0.382
388.45,0.382
387.59999999999997,0.381
386.75,0.382
385.9,0.383
385.05,0.384
384.2,0.383
383.34999999999997,0.387
382.5,0.390
381.65,0.392
380.8,0.395
