wavelength,amplitude
824.0749999999999,0.976
823.225,0.913
822.375,0.925
821.525,1.000
820.675,0.954
819.8249999999999,0.877
818.975,0.809
818.125,0.780
817.275,0.744
816.425,0.733
815.5749999999999,0.768
814.725,0.846
813.875,0.856
813.025,0.846
812.175,0.783
811.3249999999999,0.778
810.475,0.804
809.625,0.829
808.775,0.834
807.925,0.922
807.0749999999999,0.951
806.225,0.956
805.375,0.839
804.525,0.758
803.675,0.789
802.8249999999999,0.800
801.975,0.791
801.125,0.760
800.275,0.702
799.425,0.694
798.5749999999999,0.682
797.725,0.706
796.875,0.732
796.025,0.734
795.175,0.738
794.3249999999999,0.736
793.475,0.732
792.625,0.742
791.775,0.753
790.925,0.779
790.0749999999999,0.759
789.225,0.737
788.375,0.740
787.525,0.695
786.675,0.710
785.8249999999999,0.743
784.975,0.764
784.125,0.788
783.275,0.773
782.425,0.776
781.5749999999999,0.732
780.725,0.677
779.875,0.624
779.025,0.621
778.175,0.631
777.3249999999999,0.665
776.475,0.665
775.625,0.680
774.775,0.697
773.925,0.658
773.0749999999999,0.630
772.225,0.649
771.375,0.667
770.525,0.642
769.675,0.636
768.8249999999999,0.651
767.975,0.634
767.125,0.719
766.275,0.692
765.425,0.663
764.5749999999999,0.616
763.725,0.618
762.875,0.647
762.025,0.676
761.175,0.676
760.3249999999999,0.662
759.475,0.734
758.625,0.704
757.775,0.633
756.925,0.606
756.0749999999999,0.574
755.225,0.557
754.375,0.568
753.525,0.575
752.675,0.547
751.8249999999999,0.534
750.975,0.587
750.125,0.609
749.275,0.644
748.425,0.637
747.5749999999999,0.592
746.725,0.551
745.875,0.556
745.025,0.576
744.175,0.602
743.3249999999999,0.555
742.475,0.529
741.625,0.517
740.775,0.485
739.925,0.472
739.0749999999999,0.501
738.225,0.537
737.375,0.563
736.525,0.598
735.675,0.636
734.8249999999999,0.570
733.975,0.533
733.125,0.538
732.275,0.533
731.425,0.489
730.5749999999999,0.499
729.725,0.494
728.875,0.499
728.025,0.488
727.175,0.520
726.3249999999999,0.563
725.475,0.532
724.625,0.528
723.775,0.576
722.925,0.546
722.0749999999999,0.533
721.225,0.530
720.375,0.517
719.525,0.493
718.675,0.473
717.8249999999999,0.442
716.975,0.451
716.125,0.451
715.275,0.514
714.425,0.531
713.5749999999999,0.501
712.725,0.507
711.875,0.532
711.025,0.529
710.175,0.499
709.3249999999999,0.444
708.475,0.427
707.625,0.414
706.775,0.430
705.925,0.389
705.0749999999999,0.387
704.225,0.398
703.375,0.390
702.525,0.391
701.675,0.434
700.8249999999999,0.460
699.975,0.496
699.125,0.458
698.275,0.392
697.425,0.416
696.5749999999999,0.420
695.725,0.401
694.875,0.375
694.025,0.404
693.175,0.418
692.3249999999999,0.412
691.475,0.423
690.625,0.389
689.775,0.401
688.925,0.400
688.0749999999999,0.393
687.225,0.379
686.375,0.373
685.525,0.393
684.675,0.391
683.8249999999999,0.382
682.975,0.400
682.125,0.406
681.275,0.385
680.425,0.370
679.5749999999999,0.371
678.725,0.407
677.875,0.395
677.025,0.370
676.175,0.365
675.3249999999999,0.363
674.475,0.394
673.625,0.396
672.775,0.405
671.925,0.400
671.0749999999999,0.423
670.225,0.420
669.375,0.404
668.525,0.410
667.675,0.391
666.8249999999999,0.393
665.975,0.420
665.125,0.421
664.275,0.397
663.425,0.381
662.5749999999999,0.381
661.725,0.385
660.875,0.383
660.025,0.368
659.175,0.334
658.3249999999999,0.366
657.475,0.392
656.625,0.399
655.775,0.393
654.925,0.400
654.0749999999999,0.383
653.225,0.380
652.375,0.359
651.525,0.349
650.675,0.350
649.8249999999999,0.365
648.975,0.359
648.125,0.351
647.275,0.341
646.425,0.344
645.5749999999999,0.351
644.725,0.352
643.875,0.358
643.025,0.351
642.175,0.346
641.3249999999999,0.320
640.475,0.323
639.625,0.325
638.775,0.352
637.925,0.340
637.0749999999999,0.335
636.225,0.342
635.375,0.347
634.525,0.338
633.675,0.339
632.8249999999999,0.355
631.975,0.355
631.125,0.351
630.275,0.389
629.425,0.351
628.5749999999999,0.342
627.725,0.347
626.875,0.372
626.025,0.354
625.175,0.336
624.3249999999999,0.335
623.475,0.352
622.625,0.370
621.775,0.376
620.925,0.388
620.0749999999999,0.378
619.225,0.377
618.375,0.371
617.525,0.351
616.675,0.360
615.8249999999999,0.370
614.975,0.365
614.125,0.367
613.275,0.375
612.425,0.353
611.5749999999999,0.388
610.725,0.436
609.875,0.405
609.025,0.422
608.175,0.410
607.3249999999999,0.417
606.475,0.433
605.625,0.426
604.775,0.432
603.925,0.457
603.0749999999999,0.482
602.225,0.490
601.375,0.484
600.525,0.476
599.675,0.456
598.8249999999999,0.462
597.975,0.485
597.125,0.488
596.275,0.466
595.425,0.454
594.5749999999999,0.450
593.725,0.463
592.875,0.474
592.025,0.515
591.175,0.541
590.3249999999999,0.524
589.475,0.514
588.625,0.508
587.775,0.509
586.925,0.524
586.0749999999999,0.549
585.225,0.542
584.375,0.524
583.525,0.505
582.675,0.511
581.8249999999999,0.530
580.975,0.577
580.125,0.592
579.275,0.593
578.425,0.612
577.5749999999999,0.621
576.725,0.611
575.875,0.598
575.025,0.561
574.175,0.529
573.3249999999999,0.555
572.475,0.544
571.625,0.564
570.775,0.595
569.925,0.636
569.0749999999999,0.621
568.225,0.600
567.375,0.597
566.525,0.604
565.675,0.591
564.8249999999999,0.553
563.975,0.551
563.125,0.563
562.275,0.593
561.425,0.598
560.5749999999999,0.593
559.725,0.572
558.875,0.565
558.025,0.565
557.175,0.547
556.3249999999999,0.579
555.475,0.607
554.625,0.618
553.775,0.625
552.925,0.610
552.0749999999999,0.621
551.225,0.638
550.375,0.638
549.525,0.620
548.675,0.584
547.8249999999999,0.545
546.975,0.541
546.125,0.548
545.275,0.566
544.425,0.536
543.5749999999999,0.536
542.725,0.543
541.875,0.543
541.025,0.597
540.175,0.571
539.3249999999999,0.533
538.475,0.534
537.625,0.535
536.775,0.500
535.925,0.489
535.0749999999999,0.474
534.225,0.474
533.375,0.479
532.525,0.444
531.675,0.468
530.8249999999999,0.454
529.975,0.461
529.125,0.480
528.275,0.444
527.425,0.439
526.5749999999999,0.440
525.725,0.416
524.875,0.394
524.025,0.390
523.175,0.399
522.3249999999999,0.398
521.475,0.374
520.625,0.380
519.775,0.398
518.925,0.386
518.0749999999999,0.373
517.225,0.374
516.375,0.361
515.525,0.389
514.675,0.382
513.8249999999999,0.378
512.975,0.378
512.125,0.370
511.275,0.373
510.425,0.378
509.575,0.394
508.72499999999997,0.393
507.875,0.380
507.025,0.378
506.175,0.383
505.325,0.395
504.47499999999997,0.392
503.625,0.389
502.775,0.366
501.925,0.363
501.075,0.357
500.22499999999997,0.358
499.375,0.372
498.525,0.376
497.675,0.370
496.825,0.352
495.97499999999997,0.381
495.125,0.393
494.275,0.387
493.425,0.380
492.575,0.385
491.72499999999997,0.369
490.875,0.367
490.025,0.370
489.175,0.363
488.325,0.379
487.47499999999997,0.356
486.625,0.364
485.775,0.382
484.925,0.378
484.075,0.404
483.22499999999997,0.361
482.375,0.342
481.525,0.346
480.675,0.343
479.825,0.343
478.97499999999997,0.373
478.125,0.374
477.275,0.362
476.425,0.372
475.575,0.398
474.72499999999997,0.370
473.875,0.357
473.025,0.349
472.175,0.334
471.325,0.330
470.47499999999997,0.333
469.625,0.339
468.775,0.366
467.925,0.383
467.075,0.373
466.22499999999997,0.359
465.375,0.356
464.525,0.335
463.675,0.334
462.825,0.341
461.97499999999997,0.334
461.125,0.356
460.275,0.365
459.425,0.358
458.575,0.342
457.72499999999997,0.346
456.875,0.349
456.025,0.341
455.175,0.311
454.325,0.302
453.47499999999997,0.306
452.625,0.326
451.775,0.319
450.925,0.328
450.075,0.288
449.22499999999997,0.277
448.375,0.285
447.525,0.311
446.675,0.310
445.825,0.295
444.97499999999997,0.287
444.125,0.290
443.275,0.265
442.425,0.266
441.575,0.271
440.72499999999997,0.248
439.875,0.252
439.025,0.249
438.175,0.242
437.325,0.247
436.47499999999997,0.256
435.625,0.245
434.775,0.228
433.925,0.240
433.075,0.236
432.22499999999997,0.255
431.375,0.261
430.525,0.252
429.675,0.243
428.825,0.241
427.97499999999997,0.240
427.125,0.262
426.275,0.274
425.425,0.273
424.575,0.277
423.72499999999997,0.271
422.875,0.284
422.025,0.285
421.175,0.288
420.325,0.283
419.47499999999997,0.264
418.625,0.278
417.775,0.265
416.925,0.258
416.075,0.262
415.22499999999997,0.249
414.375,0.272
413.525,0.253
412.675,0.252
411.825,0.258
410.97499999999997,0.260
410.125,0.272
409.275,0.270
408.425,0.262
407.575,0.260
406.72499999999997,0.265
405.875,0.250
405.025,0.241
404.175,0.247
403.325,0.231
402.47499999999997,0.245
401.625,0.239
400.775,0.242
399.925,0.251
399.075,0.231
398.22499999999997,0.215
397.375,0.215
396.525,0.218
395.675,0.231
394.825,0.230
393.97499999999997,0.218
393.125,0.226
392.275,0.216
391.425,0.208
390.575,0.230
389.72499999999997,0.225
388.875,0.224
388.025,0.216
387.175,0.227
386.325,0.216
385.47499999999997,0.214
384.625,0.216
383.775,0.247
382.925,0.242
382.075,0.236
381.22499999999997,0.225
380.375,0.228
