wavelength,amplitude
955.5,0.505
954.52,0.429
953.54,0.385
952.56,0.387
951.5799999999999,0.390
950.6,0.372
949.62,0.384
948.64,0.370
947.66,0.345
946.68,0.363
945.6999999999999,0.373
944.72,0.382
943.74,0.372
942.76,0.365
941.78,0.385
940.8,0.367
939.8199999999999,0.367
938.84,0.372
937.86,0.376
936.88,0.388
935.9,0.357
934.92,0.348
933.9399999999999,0.345
932.96,0.355
931.98,0.357
931.0,0.342
930.02,0.353
929.04,0.346
928.06,0.359
927.0799999999999,0.377
926.1,0.365
925.12,0.382
924.14,0.386
923.16,0.333
922.18,0.323
921.1999999999999,0.342
920.22,0.390
919.24,0.375
918.26,0.358
917.28,0.380
916.3,0.383
915.3199999999999,0.369
914.34,0.364
913.36,0.368
912.38,0.349
911.4,0.364
910.42,0.406
909.4399999999999,0.409
908.46,0.361
907.48,0.367
906.5,0.383
905.52,0.395
904.54,0.422
903.56,0.436
902.5799999999999,0.431
901.6,0.412
900.62,0.390
899.64,0.384
898.66,0.363
897.68,0.370
896.6999999999999,0.359
895.72,0.344
894.74,0.336
893.76,0.366
892.78,0.369
891.8,0.357
890.8199999999999,0.394
889.84,0.359
888.86,0.327
887.88,0.324
886.9,0.331
885.92,0.339
884.9399999999999,0.335
883.96,0.331
882.98,0.339
882.0,0.349
881.02,0.359
880.04,0.372
879.06,0.344
878.0799999999999,0.323
877.1,0.321
876.12,0.336
875.14,0.355
874.16,0.362
873.18,0.362
872.1999999999999,0.346
871.22,0.356
870.24,0.310
869.26,0.291
868.28,0.347
867.3,0.312
866.3199999999999,0.331
865.34,0.344
864.36,0.350
863.38,0.354
862.4,0.320
861.42,0.316
860.4399999999999,0.291
859.46,0.265
858.48,0.275
857.5,0.261
856.52,0.292
855.54,0.310
854.56,0.311
853.58,0.348
852.6,0.313
851.62,0.328
850.64,0.325
849.66,0.318
848.68,0.281
847.6999999999999,0.296
846.72,0.314
845.74,0.344
844.76,0.350
843.78,0.349
842.8,0.336
841.8199999999999,0.323
840.84,0.326
839.86,0.355
838.88,0.350
837.9,0.343
836.92,0.327
835.9399999999999,0.337
834.96,0.335
833.98,0.352
833.0,0.335
832.02,0.317
831.04,0.304
830.06,0.335
829.08,0.354
828.1,0.340
827.12,0.330
826.14,0.334
825.16,0.368
824.18,0.335
823.1999999999999,0.360
822.22,0.380
821.24,0.375
820.26,0.353
819.28,0.354
818.3,0.342
817.3199999999999,0.346
816.34,0.358
815.36,0.359
814.38,0.387
813.4,0.383
812.42,0.369
811.4399999999999,0.369
810.46,0.366
809.48,0.339
808.5,0.332
807.52,0.341
806.54,0.341
805.56,0.347
804.58,0.350
803.6,0.357
802.62,0.359
801.64,0.334
800.66,0.364
799.68,0.363
798.6999999999999,0.344
797.72,0.327
796.74,0.365
795.76,0.377
794.78,0.365
793.8,0.362
792.8199999999999,0.382
791.84,0.362
790.86,0.376
789.88,0.373
788.9,0.372
787.92,0.339
786.9399999999999,0.353
785.96,0.338
784.98,0.334
784.0,0.353
783.02,0.375
782.04,0.373
781.06,0.384
780.08,0.368
779.1,0.353
778.12,0.353
777.14,0.355
776.16,0.346
775.18,0.335
774.1999999999999,0.340
773.22,0.346
772.24,0.331
771.26,0.328
770.28,0.322
769.3,0.308
768.3199999999999,0.320
767.34,0.295
766.36,0.286
765.38,0.291
764.4,0.321
763.42,0.326
762.4399999999999,0.330
761.46,0.335
760.48,0.336
759.5,0.330
758.52,0.305
757.54,0.296
756.56,0.305
755.58,0.297
754.6,0.310
753.62,0.297
752.64,0.295
751.66,0.311
750.68,0.302
749.6999999999999,0.292
748.72,0.303
747.74,0.296
746.76,0.299
745.78,0.308
744.8,0.305
743.8199999999999,0.304
742.84,0.307
741.86,0.321
740.88,0.307
739.9,0.317
738.92,0.329
737.9399999999999,0.332
736.96,0.327
735.98,0.341
735.0,0.335
734.02,0.345
733.04,0.356
732.06,0.357
731.08,0.362
730.1,0.363
729.12,0.371
728.14,0.367
727.16,0.346
726.18,0.344
725.1999999999999,0.355
724.22,0.366
723.24,0.379
722.26,0.375
721.28,0.367
720.3,0.383
719.3199999999999,0.385
718.34,0.405
717.36,0.425
716.38,0.431
715.4,0.430
714.42,0.450
713.4399999999999,0.473
712.46,0.473
711.48,0.470
710.5,0.478
709.52,0.486
708.54,0.497
707.56,0.512
706.58,0.518
705.6,0.517
704.62,0.528
703.64,0.571
702.66,0.556
701.68,0.580
700.6999999999999,0.616
699.72,0.610
698.74,0.665
697.76,0.664
696.78,0.653
695.8,0.662
694.8199999999999,0.665
693.84,0.667
692.86,0.663
691.88,0.648
690.9,0.646
689.92,0.674
688.9399999999999,0.690
687.96,0.719
686.98,0.725
686.0,0.732
685.02,0.737
684.04,0.735
683.06,0.749
682.08,0.751
681.1,0.736
680.12,0.754
679.14,0.737
678.16,0.743
677.18,0.732
676.1999999999999,0.711
675.22,0.713
674.24,0.701
673.26,0.708
672.28,0.717
671.3,0.704
670.3199999999999,0.724
669.34,0.709
668.36,0.705
667.38,0.717
666.4,0.729
665.42,0.717
664.4399999999999,0.725
663.46,0.717
662.48,0.693
661.5,0.708
660.52,0.714
659.54,0.727
658.56,0.729
657.58,0.728
656.6,0.722
655.62,0.726
654.64,0.733
653.66,0.733
652.68,0.720
651.6999999999999,0.720
650.72,0.745
649.74,0.743
648.76,0.729
647.78,0.737
646.8,0.735
645.8199999999999,0.740
644.84,0.739
643.86,0.732
642.88,0.748
641.9,0.738
640.92,0.730
639.9399999999999,0.734
638.96,0.740
637.98,0.736
637.0,0.739
636.02,0.745
635.04,0.749
634.06,0.727
633.08,0.743
632.1,0.738
631.12,0.745
630.14,0.769
629.16,0.735
628.18,0.746
627.2,0.755
626.22,0.749
625.24,0.743
624.26,0.763
623.28,0.776
622.3,0.752
621.3199999999999,0.745
620.34,0.741
619.36,0.743
618.38,0.735
617.4,0.724
616.42,0.707
615.4399999999999,0.715
614.46,0.714
613.48,0.717
612.5,0.710
611.52,0.713
610.54,0.709
609.56,0.733
608.58,0.719
607.6,0.719
606.62,0.718
605.64,0.724
604.66,0.724
603.68,0.734
602.7,0.732
601.72,0.712
600.74,0.726
599.76,0.739
598.78,0.759
597.8,0.765
596.8199999999999,0.774
595.84,0.778
594.86,0.770
593.88,0.766
592.9,0.772
591.92,0.781
590.9399999999999,0.785
589.96,0.776
588.98,0.773
588.0,0.782
587.02,0.774
586.04,0.761
585.06,0.773
584.08,0.797
583.1,0.805
582.12,0.790
581.14,0.801
580.16,0.823
579.18,0.830
578.2,0.824
577.22,0.853
576.24,0.863
575.26,0.859
574.28,0.864
573.3,0.892
572.3199999999999,0.943
571.34,0.972
570.36,0.969
569.38,0.959
568.4,0.973
567.42,0.969
566.4399999999999,0.961
565.46,0.957
564.48,0.967
563.5,0.948
562.52,0.934
561.54,0.929
560.56,0.938
559.58,0.968
558.6,0.956
557.62,0.942
556.64,0.936
555.66,0.937
554.68,0.947
553.7,0.935
552.72,0.942
551.74,0.951
550.76,0.961
549.78,0.980
548.8,0.968
547.8199999999999,0.950
546.84,0.936
545.86,0.941
544.88,0.948
543.9,0.927
542.92,0.914
541.9399999999999,0.924
540.96,0.923
539.98,0.920
539.0,0.927
538.02,0.935
537.04,0.935
536.06,0.924
535.08,0.923
534.1,0.931
533.12,0.920
532.14,0.915
531.16,0.923
530.18,0.929
529.2,0.930
528.22,0.934
527.24,0.933
526.26,0.929
525.28,0.946
524.3,0.958
523.3199999999999,0.958
522.34,0.959
521.36,0.968
520.38,0.970
519.4,0.971
518.42,0.976
517.4399999999999,0.974
516.46,0.979
515.48,1.000
514.5,0.996
513.52,0.966
512.54,0.945
511.56,0.944
510.58,0.948
509.59999999999997,0.940
508.62,0.919
507.64,0.898
506.65999999999997,0.902
505.68,0.867
504.7,0.847
503.71999999999997,0.839
502.74,0.839
501.76,0.828
500.78,0.782
499.8,0.758
498.82,0.761
497.84,0.731
496.86,0.720
495.88,0.711
494.9,0.698
493.92,0.685
492.94,0.662
491.96,0.651
490.98,0.644
490.0,0.622
489.02,0.614
488.03999999999996,0.602
487.06,0.606
486.08,0.610
485.09999999999997,0.621
484.12,0.617
483.14,0.619
482.15999999999997,0.619
481.18,0.608
480.2,0.605
479.21999999999997,0.611
478.24,0.612
477.26,0.612
476.28,0.604
475.3,0.599
474.32,0.603
473.34,0.593
472.36,0.586
471.38,0.580
470.4,0.579
469.42,0.566
468.44,0.560
467.46,0.554
466.48,0.554
465.5,0.543
464.52,0.544
463.53999999999996,0.533
462.56,0.520
461.58,0.499
460.59999999999997,0.489
459.62,0.477
458.64,0.472
457.65999999999997,0.460
456.68,0.454
455.7,0.430
454.71999999999997,0.431
453.74,0.423
452.76,0.412
451.78,0.405
450.8,0.390
449.82,0.382
448.84,0.375
447.86,0.368
446.88,0.374
445.9,0.373
444.92,0.375
443.94,0.369
442.96,0.362
441.98,0.359
441.0,0.344
440.02,0.339
439.03999999999996,0.336
438.06,0.339
437.08,0.323
436.09999999999997,0.321
435.12,0.320
434.14,0.320
433.15999999999997,0.317
432.18,0.304
431.2,0.300
430.21999999999997,0.298
429.24,0.290
428.26,0.287
427.28,0.287
426.3,0.284
425.32,0.279
424.34,0.271
423.36,0.277
422.38,0.266
421.4,0.251
420.42,0.245
419.44,0.243
418.46,0.236
417.48,0.234
416.5,0.227
415.52,0.216
414.54,0.215
413.56,0.215
412.58,0.220
411.59999999999997,0.224
410.62,0.216
409.64,0.199
408.65999999999997,0.205
407.68,0.208
406.7,0.207
405.71999999999997,0.208
404.74,0.191
403.76,0.192
402.78,0.184
401.8,0.183
400.82,0.194
399.84,0.192
398.86,0.197
397.88,0.191
396.9,0.178
395.92,0.180
394.94,0.181
393.96,0.176
392.98,0.175
392.0,0.180
391.02,0.174
390.04,0.182
389.06,0.180
388.08,0.180
387.09999999999997,0.190
386.12,0.188
385.14,0.183
384.15999999999997,0.180
383.18,0.184
382.2,0.185
381.21999999999997,0.178
380.24,0.176
