wavelength,amplitude
947.66,0.607
946.68,0.495
945.6999999999999,0.413
944.72,0.456
943.74,0.463
942.76,0.432
941.78,0.419
940.8,0.417
939.8199999999999,0.417
938.84,0.400
937.86,0.425
936.88,0.429
935.9,0.420
934.92,0.445
933.9399999999999,0.424
932.96,0.413
931.98,0.403
931.0,0.397
930.02,0.396
929.04,0.410
928.06,0.418
927.0799999999999,0.401
926.1,0.380
925.12,0.349
924.14,0.410
923.16,0.382
922.18,0.381
921.1999999999999,0.372
920.22,0.386
919.24,0.371
918.26,0.388
917.28,0.402
916.3,0.422
915.3199999999999,0.417
914.34,0.433
913.36,0.432
912.38,0.418
911.4,0.385
910.42,0.439
909.4399999999999,0.394
908.46,0.386
907.48,0.392
906.5,0.396
905.52,0.431
904.54,0.450
903.56,0.424
902.5799999999999,0.389
901.6,0.450
900.62,0.421
899.64,0.389
898.66,0.409
897.68,0.432
896.6999999999999,0.420
895.72,0.363
894.74,0.359
893.76,0.354
892.78,0.372
891.8,0.389
890.8199999999999,0.407
889.84,0.367
888.86,0.354
887.88,0.352
886.9,0.407
885.92,0.383
884.9399999999999,0.375
883.96,0.409
882.98,0.414
882.0,0.393
881.02,0.366
880.04,0.349
879.06,0.367
878.0799999999999,0.383
877.1,0.393
876.12,0.352
875.14,0.352
874.16,0.365
873.18,0.400
872.1999999999999,0.393
871.22,0.365
870.24,0.355
869.26,0.387
868.28,0.372
867.3,0.383
866.3199999999999,0.381
865.34,0.385
864.36,0.383
863.38,0.389
862.4,0.386
861.42,0.374
860.4399999999999,0.349
859.46,0.347
858.48,0.355
857.5,0.379
856.52,0.398
855.54,0.428
854.56,0.400
853.58,0.370
852.6,0.364
851.62,0.358
850.64,0.372
849.66,0.353
848.68,0.368
847.6999999999999,0.376
846.72,0.411
845.74,0.430
844.76,0.394
843.78,0.375
842.8,0.365
841.8199999999999,0.372
840.84,0.363
839.86,0.435
838.88,0.357
837.9,0.337
836.92,0.357
835.9399999999999,0.329
834.96,0.391
833.98,0.377
833.0,0.369
832.02,0.381
831.04,0.330
830.06,0.340
829.08,0.344
828.1,0.363
827.12,0.366
826.14,0.361
825.16,0.344
824.18,0.355
823.1999999999999,0.383
822.22,0.370
821.24,0.376
820.26,0.359
819.28,0.342
818.3,0.367
817.3199999999999,0.359
816.34,0.352
815.36,0.339
814.38,0.348
813.4,0.370
812.42,0.363
811.4399999999999,0.363
810.46,0.340
809.48,0.330
808.5,0.359
807.52,0.331
806.54,0.356
805.56,0.345
804.58,0.340
803.6,0.341
802.62,0.368
801.64,0.333
800.66,0.340
799.68,0.350
798.6999999999999,0.339
797.72,0.331
796.74,0.324
795.76,0.328
794.78,0.336
793.8,0.331
792.8199999999999,0.325
791.84,0.337
790.86,0.345
789.88,0.326
788.9,0.297
787.92,0.294
786.9399999999999,0.298
785.96,0.323
784.98,0.311
784.0,0.311
783.02,0.311
782.04,0.295
781.06,0.311
780.08,0.341
779.1,0.320
778.12,0.324
777.14,0.323
776.16,0.307
775.18,0.310
774.1999999999999,0.318
773.22,0.294
772.24,0.293
771.26,0.317
770.28,0.309
769.3,0.283
768.3199999999999,0.269
767.34,0.284
766.36,0.311
765.38,0.328
764.4,0.329
763.42,0.316
762.4399999999999,0.283
761.46,0.271
760.48,0.276
759.5,0.284
758.52,0.279
757.54,0.297
756.56,0.283
755.58,0.290
754.6,0.281
753.62,0.289
752.64,0.283
751.66,0.277
750.68,0.266
749.6999999999999,0.256
748.72,0.257
747.74,0.275
746.76,0.281
745.78,0.264
744.8,0.263
743.8199999999999,0.271
742.84,0.294
741.86,0.267
740.88,0.251
739.9,0.235
738.92,0.262
737.9399999999999,0.295
736.96,0.290
735.98,0.254
735.0,0.250
734.02,0.254
733.04,0.290
732.06,0.294
731.08,0.273
730.1,0.250
729.12,0.242
728.14,0.258
727.16,0.257
726.18,0.261
725.1999999999999,0.247
724.22,0.265
723.24,0.249
722.26,0.249
721.28,0.249
720.3,0.242
719.3199999999999,0.268
718.34,0.255
717.36,0.243
716.38,0.248
715.4,0.253
714.42,0.241
713.4399999999999,0.243
712.46,0.249
711.48,0.251
710.5,0.242
709.52,0.272
708.54,0.265
707.56,0.267
706.58,0.259
705.6,0.256
704.62,0.262
703.64,0.257
702.66,0.254
701.68,0.268
700.6999999999999,0.314
699.72,0.309
698.74,0.297
697.76,0.286
696.78,0.298
695.8,0.304
694.8199999999999,0.317
693.84,0.317
692.86,0.306
691.88,0.294
690.9,0.328
689.92,0.327
688.9399999999999,0.322
687.96,0.293
686.98,0.301
686.0,0.315
685.02,0.310
684.04,0.321
683.06,0.364
682.08,0.360
681.1,0.331
680.12,0.319
679.14,0.335
678.16,0.361
677.18,0.353
676.1999999999999,0.375
675.22,0.374
674.24,0.380
673.26,0.377
672.28,0.365
671.3,0.366
670.3199999999999,0.398
669.34,0.404
668.36,0.395
667.38,0.382
666.4,0.383
665.42,0.394
664.4399999999999,0.403
663.46,0.462
662.48,0.547
661.5,0.662
660.52,0.741
659.54,0.833
658.56,0.913
657.58,0.860
656.6,0.813
655.62,0.762
654.64,0.713
653.66,0.636
652.68,0.624
651.6999999999999,0.622
650.72,0.601
649.74,0.563
648.76,0.556
647.78,0.531
646.8,0.517
645.8199999999999,0.494
644.84,0.473
643.86,0.421
642.88,0.406
641.9,0.392
640.92,0.394
639.9399999999999,0.389
638.96,0.384
637.98,0.403
637.0,0.412
636.02,0.396
635.04,0.383
634.06,0.382
633.08,0.382
632.1,0.392
631.12,0.402
630.14,0.420
629.16,0.412
628.18,0.413
627.2,0.401
626.22,0.382
625.24,0.387
624.26,0.386
623.28,0.389
622.3,0.408
621.3199999999999,0.379
620.34,0.391
619.36,0.379
618.38,0.377
617.4,0.390
616.42,0.365
615.4399999999999,0.345
614.46,0.339
613.48,0.323
612.5,0.304
611.52,0.329
610.54,0.289
609.56,0.267
608.58,0.266
607.6,0.289
606.62,0.253
605.64,0.253
604.66,0.237
603.68,0.218
602.7,0.238
601.72,0.222
600.74,0.226
599.76,0.226
598.78,0.215
597.8,0.221
596.8199999999999,0.215
595.84,0.225
594.86,0.230
593.88,0.245
592.9,0.247
591.92,0.251
590.9399999999999,0.250
589.96,0.258
588.98,0.267
588.0,0.276
587.02,0.289
586.04,0.312
585.06,0.346
584.08,0.400
583.1,0.496
582.12,0.605
581.14,0.717
580.16,0.822
579.18,0.945
578.2,1.000
577.22,0.987
576.24,0.924
575.26,0.814
574.28,0.796
573.3,0.720
572.3199999999999,0.663
571.34,0.624
570.36,0.579
569.38,0.593
568.4,0.581
567.42,0.526
566.4399999999999,0.448
565.46,0.436
564.48,0.348
563.5,0.323
562.52,0.305
561.54,0.302
560.56,0.278
559.58,0.257
558.6,0.255
557.62,0.252
556.64,0.250
555.66,0.246
554.68,0.228
553.7,0.220
552.72,0.225
551.74,0.219
550.76,0.206
549.78,0.203
548.8,0.202
547.8199999999999,0.200
546.84,0.205
545.86,0.196
544.88,0.187
543.9,0.184
542.92,0.181
541.9399999999999,0.177
540.96,0.201
539.98,0.192
539.0,0.181
538.02,0.193
537.04,0.176
536.06,0.183
535.08,0.179
534.1,0.181
533.12,0.198
532.14,0.191
531.16,0.187
530.18,0.197
529.2,0.180
528.22,0.180
527.24,0.182
526.26,0.193
525.28,0.206
524.3,0.218
523.3199999999999,0.216
522.34,0.220
521.36,0.211
520.38,0.228
519.4,0.257
518.42,0.268
517.4399999999999,0.277
516.46,0.275
515.48,0.277
514.5,0.271
513.52,0.303
512.54,0.298
511.56,0.273
510.58,0.244
509.59999999999997,0.227
508.62,0.230
507.64,0.220
506.65999999999997,0.221
505.68,0.239
504.7,0.233
503.71999999999997,0.223
502.74,0.215
501.76,0.214
500.78,0.207
499.8,0.192
498.82,0.178
497.84,0.191
496.86,0.193
495.88,0.183
494.9,0.187
493.92,0.183
492.94,0.194
491.96,0.191
490.98,0.185
490.0,0.194
489.02,0.175
488.03999999999996,0.164
487.06,0.145
486.08,0.146
485.09999999999997,0.143
484.12,0.156
483.14,0.158
482.15999999999997,0.153
481.18,0.156
480.2,0.164
479.21999999999997,0.168
478.24,0.167
477.26,0.170
476.28,0.147
475.3,0.158
474.32,0.151
473.34,0.164
472.36,0.159
471.38,0.171
470.4,0.168
469.42,0.167
468.44,0.166
467.46,0.168
466.48,0.174
465.5,0.159
464.52,0.159
463.53999999999996,0.160
462.56,0.180
461.58,0.220
460.59999999999997,0.244
459.62,0.238
458.64,0.232
457.65999999999997,0.198
456.68,0.202
455.7,0.183
454.71999999999997,0.171
453.74,0.158
452.76,0.172
451.78,0.175
450.8,0.180
449.82,0.173
448.84,0.173
447.86,0.161
446.88,0.158
445.9,0.147
444.92,0.149
443.94,0.132
442.96,0.137
441.98,0.157
441.0,0.151
440.02,0.148
439.03999999999996,0.156
438.06,0.157
437.08,0.148
436.09999999999997,0.137
435.12,0.131
434.14,0.126
433.15999999999997,0.127
432.18,0.119
431.2,0.116
430.21999999999997,0.135
429.24,0.132
428.26,0.123
427.28,0.127
426.3,0.132
425.32,0.134
424.34,0.119
423.36,0.126
422.38,0.126
421.4,0.124
420.42,0.123
419.44,0.135
418.46,0.126
417.48,0.123
416.5,0.117
415.52,0.123
414.54,0.124
413.56,0.117
412.58,0.119
411.59999999999997,0.117
410.62,0.121
409.64,0.119
408.65999999999997,0.122
407.68,0.118
406.7,0.115
405.71999999999997,0.119
404.74,0.119
403.76,0.117
402.78,0.127
401.8,0.113
400.82,0.127
399.84,0.126
398.86,0.120
397.88,0.129
396.9,0.113
395.92,0.123
394.94,0.117
393.96,0.118
392.98,0.117
392.0,0.125
391.02,0.125
390.04,0.128
389.06,0.116
388.08,0.119
387.09999999999997,0.119
386.12,0.120
385.14,0.122
384.15999999999997,0.127
383.18,0.133
382.2,0.119
381.21999999999997,0.123
380.24,0.123
