wavelength,amplitude
960.89,0.360
959.91,0.340
958.93,0.337
957.9499999999999,0.344
956.97,0.350
955.99,0.338
955.01,0.329
954.03,0.324
953.05,0.329
952.0699999999999,0.339
951.09,0.337
950.11,0.330
949.13,0.325
948.15,0.328
947.17,0.337
946.1899999999999,0.340
945.21,0.329
944.23,0.322
943.25,0.309
942.27,0.325
941.29,0.324
940.31,0.321
939.3299999999999,0.327
938.35,0.322
937.37,0.315
936.39,0.326
935.41,0.338
934.43,0.349
933.4499999999999,0.363
932.47,0.371
931.49,0.368
930.51,0.370
929.53,0.377
928.55,0.366
927.5699999999999,0.363
926.59,0.353
925.61,0.347
924.63,0.346
923.65,0.347
922.67,0.345
921.6899999999999,0.362
920.71,0.364
919.73,0.371
918.75,0.348
917.77,0.345
916.79,0.350
915.81,0.354
914.8299999999999,0.352
913.85,0.358
912.87,0.360
911.89,0.357
910.91,0.358
909.93,0.351
908.9499999999999,0.350
907.97,0.345
906.99,0.349
906.01,0.338
905.03,0.347
904.05,0.342
903.0699999999999,0.342
902.09,0.342
901.11,0.335
900.13,0.344
899.15,0.336
898.17,0.326
897.1899999999999,0.321
896.21,0.343
895.23,0.347
894.25,0.349
893.27,0.344
892.29,0.343
891.31,0.366
890.3299999999999,0.347
889.35,0.338
888.37,0.328
887.39,0.323
886.41,0.319
885.43,0.311
884.4499999999999,0.310
883.47,0.311
882.49,0.301
881.51,0.288
880.53,0.292
879.55,0.289
878.5699999999999,0.296
877.59,0.307
876.61,0.311
875.63,0.310
874.65,0.309
873.67,0.309
872.6899999999999,0.299
871.71,0.290
870.73,0.313
869.75,0.322
868.77,0.306
867.79,0.289
866.81,0.282
865.83,0.275
864.85,0.279
863.87,0.283
862.89,0.286
861.91,0.281
860.93,0.278
859.9499999999999,0.267
858.97,0.269
857.99,0.255
857.01,0.257
856.03,0.255
855.05,0.267
854.0699999999999,0.295
853.09,0.310
852.11,0.334
851.13,0.351
850.15,0.344
849.17,0.339
848.1899999999999,0.332
847.21,0.325
846.23,0.325
845.25,0.327
844.27,0.312
843.29,0.330
842.31,0.322
841.33,0.320
840.35,0.328
839.37,0.304
838.39,0.320
837.41,0.333
836.43,0.337
835.4499999999999,0.329
834.47,0.336
833.49,0.321
832.51,0.320
831.53,0.336
830.55,0.327
829.5699999999999,0.324
828.59,0.315
827.61,0.316
826.63,0.324
825.65,0.311
824.67,0.311
823.6899999999999,0.318
822.71,0.319
821.73,0.321
820.75,0.328
819.77,0.324
818.79,0.323
817.81,0.325
816.83,0.321
815.85,0.303
814.87,0.309
813.89,0.304
812.91,0.291
811.93,0.284
810.9499999999999,0.310
809.97,0.322
808.99,0.314
808.01,0.295
807.03,0.299
806.05,0.298
805.0699999999999,0.303
804.09,0.308
803.11,0.316
802.13,0.316
801.15,0.313
800.17,0.313
799.1899999999999,0.303
798.21,0.304
797.23,0.316
796.25,0.307
795.27,0.310
794.29,0.332
793.31,0.325
792.33,0.312
791.35,0.324
790.37,0.339
789.39,0.344
788.41,0.331
787.43,0.329
786.4499999999999,0.327
785.47,0.333
784.49,0.346
783.51,0.329
782.53,0.331
781.55,0.324
780.5699999999999,0.326
779.59,0.341
778.61,0.349
777.63,0.346
776.65,0.347
775.67,0.341
774.6899999999999,0.344
773.71,0.352
772.73,0.353
771.75,0.356
770.77,0.367
769.79,0.380
768.81,0.387
767.83,0.382
766.85,0.387
765.87,0.390
764.89,0.403
763.91,0.407
762.93,0.404
761.9499999999999,0.406
760.97,0.402
759.99,0.389
759.01,0.379
758.03,0.383
757.05,0.399
756.0699999999999,0.387
755.09,0.383
754.11,0.389
753.13,0.392
752.15,0.393
751.17,0.394
750.1899999999999,0.394
749.21,0.382
748.23,0.379
747.25,0.378
746.27,0.373
745.29,0.368
744.31,0.365
743.33,0.373
742.35,0.387
741.37,0.369
740.39,0.370
739.41,0.362
738.43,0.359
737.4499999999999,0.361
736.47,0.384
735.49,0.383
734.51,0.388
733.53,0.384
732.55,0.392
731.5699999999999,0.398
730.59,0.399
729.61,0.393
728.63,0.383
727.65,0.362
726.67,0.382
725.6899999999999,0.396
724.71,0.401
723.73,0.406
722.75,0.391
721.77,0.392
720.79,0.390
719.81,0.389
718.83,0.385
717.85,0.380
716.87,0.375
715.89,0.373
714.91,0.374
713.93,0.374
712.9499999999999,0.392
711.97,0.391
710.99,0.389
710.01,0.382
709.03,0.384
708.05,0.366
707.0699999999999,0.365
706.09,0.368
705.11,0.369
704.13,0.361
703.15,0.364
702.17,0.368
701.1899999999999,0.378
700.21,0.383
699.23,0.376
698.25,0.376
697.27,0.375
696.29,0.373
695.31,0.378
694.33,0.375
693.35,0.374
692.37,0.375
691.39,0.380
690.41,0.388
689.43,0.389
688.4499999999999,0.384
687.47,0.380
686.49,0.373
685.51,0.378
684.53,0.381
683.55,0.387
682.5699999999999,0.390
681.59,0.388
680.61,0.395
679.63,0.393
678.65,0.393
677.67,0.395
676.6899999999999,0.387
675.71,0.393
674.73,0.393
673.75,0.401
672.77,0.406
671.79,0.408
670.81,0.411
669.83,0.410
668.85,0.407
667.87,0.407
666.89,0.403
665.91,0.404
664.93,0.403
663.9499999999999,0.403
662.97,0.409
661.99,0.420
661.01,0.411
660.03,0.410
659.05,0.427
658.0699999999999,0.437
657.09,0.456
656.11,0.453
655.13,0.453
654.15,0.453
653.17,0.447
652.1899999999999,0.451
651.21,0.462
650.23,0.462
649.25,0.461
648.27,0.452
647.29,0.451
646.31,0.461
645.33,0.468
644.35,0.466
643.37,0.473
642.39,0.478
641.41,0.473
640.43,0.472
639.4499999999999,0.484
638.47,0.478
637.49,0.468
636.51,0.480
635.53,0.503
634.55,0.510
633.5699999999999,0.511
632.59,0.521
631.61,0.541
630.63,0.569
629.65,0.579
628.67,0.568
627.6899999999999,0.571
626.71,0.563
625.73,0.535
624.75,0.520
623.77,0.517
622.79,0.508
621.81,0.489
620.83,0.481
619.85,0.459
618.87,0.461
617.89,0.454
616.91,0.449
615.93,0.444
614.95,0.432
613.97,0.439
612.99,0.445
612.01,0.451
611.03,0.447
610.05,0.453
609.0699999999999,0.464
608.09,0.467
607.11,0.452
606.13,0.461
605.15,0.470
604.17,0.479
603.1899999999999,0.486
602.21,0.482
601.23,0.480
600.25,0.484
599.27,0.495
598.29,0.503
597.31,0.491
596.33,0.494
595.35,0.504
594.37,0.505
593.39,0.508
592.41,0.519
591.43,0.534
590.45,0.528
589.47,0.531
588.49,0.546
587.51,0.570
586.53,0.579
585.55,0.583
584.5699999999999,0.588
583.59,0.597
582.61,0.611
581.63,0.623
580.65,0.631
579.67,0.637
578.6899999999999,0.641
577.71,0.644
576.73,0.645
575.75,0.653
574.77,0.666
573.79,0.671
572.81,0.690
571.83,0.705
570.85,0.724
569.87,0.727
568.89,0.718
567.91,0.708
566.93,0.717
565.95,0.721
564.97,0.717
563.99,0.733
563.01,0.728
562.03,0.725
561.05,0.716
560.0699999999999,0.707
559.09,0.723
558.11,0.716
557.13,0.709
556.15,0.710
555.17,0.712
554.1899999999999,0.728
553.21,0.715
552.23,0.709
551.25,0.717
550.27,0.734
549.29,0.751
548.31,0.775
547.33,0.803
546.35,0.819
545.37,0.834
544.39,0.841
543.41,0.848
542.43,0.857
541.45,0.866
540.47,0.875
539.49,0.879
538.51,0.886
537.53,0.888
536.55,0.891
535.5699999999999,0.899
534.59,0.913
533.61,0.926
532.63,0.938
531.65,0.962
530.67,0.980
529.6899999999999,0.981
528.71,0.974
527.73,0.974
526.75,0.979
525.77,0.986
524.79,0.992
523.81,0.996
522.83,0.993
521.85,0.998
520.87,1.000
519.89,0.992
518.91,0.981
517.93,0.963
516.95,0.947
515.97,0.946
514.99,0.953
514.01,0.961
513.03,0.975
512.05,0.971
511.07,0.959
510.09,0.947
509.11,0.943
508.13,0.919
507.15,0.912
506.17,0.894
505.19,0.871
504.21,0.852
503.23,0.829
502.25,0.809
501.27,0.787
500.28999999999996,0.758
499.31,0.739
498.33,0.729
497.34999999999997,0.717
496.37,0.707
495.39,0.694
494.40999999999997,0.682
493.43,0.677
492.45,0.669
491.46999999999997,0.660
490.49,0.658
489.51,0.634
488.53,0.629
487.55,0.621
486.57,0.620
485.59,0.616
484.61,0.609
483.63,0.602
482.65,0.598
481.67,0.598
480.69,0.601
479.71,0.601
478.73,0.598
477.75,0.599
476.77,0.603
475.78999999999996,0.599
474.81,0.596
473.83,0.593
472.84999999999997,0.592
471.87,0.589
470.89,0.589
469.90999999999997,0.588
468.93,0.584
467.95,0.581
466.96999999999997,0.578
465.99,0.568
465.01,0.566
464.03,0.565
463.05,0.559
462.07,0.558
461.09,0.550
460.11,0.550
459.13,0.549
458.15,0.543
457.17,0.537
456.19,0.536
455.21,0.535
454.23,0.535
453.25,0.537
452.27,0.528
451.28999999999996,0.536
450.31,0.541
449.33,0.542
448.34999999999997,0.541
447.37,0.536
446.39,0.533
445.40999999999997,0.537
444.43,0.536
443.45,0.535
442.46999999999997,0.527
441.49,0.534
440.51,0.537
439.53,0.534
438.55,0.537
437.57,0.534
436.59,0.525
435.61,0.522
434.63,0.517
433.65,0.508
432.67,0.504
431.69,0.504
430.71,0.504
429.73,0.503
428.75,0.504
427.77,0.501
426.79,0.491
425.81,0.481
424.83,0.466
423.84999999999997,0.449
422.87,0.430
421.89,0.403
420.90999999999997,0.374
419.93,0.349
418.95,0.331
417.96999999999997,0.315
416.99,0.304
416.01,0.295
415.03,0.290
414.05,0.278
413.07,0.267
412.09,0.251
411.11,0.233
410.13,0.215
409.15,0.201
408.17,0.182
407.19,0.168
406.21,0.155
405.23,0.143
404.25,0.138
403.27,0.138
402.29,0.134
401.31,0.129
400.33,0.126
399.34999999999997,0.122
398.37,0.116
397.39,0.113
396.40999999999997,0.119
395.43,0.120
394.45,0.118
393.46999999999997,0.118
392.49,0.117
391.51,0.112
390.53,0.112
389.55,0.112
388.57,0.111
387.59,0.109
386.61,0.107
385.63,0.107
384.65,0.106
383.67,0.106
382.69,0.107
381.71,0.106
380.73,0.109
